70BCSV 	
// AQ6370D OPTICAL SPECTRUM ANALYZER //                 
30
"CTRWL",1400.000000
"SPAN", 600.000000
"START WL",1100.000000
"STOP WL",1700.000000
"WLFREQ", 0
"REFL", -5.0
"LSCL",10.0
"RESLN",2.000
"AVG",   1
"SMPLAUTO",      1
"SMPL",       1501
"SMPLINTVL",0.4000
"HIGH2"
"MEAS"
"LSUNT",0
"NMSKH","OFF"
"RESCOR",0
"SMOOTH",0
"FIBERTYPE",1
"MEASWL",1
"SWPSPD",1
"NEBWCAL0",    0
"NEBWCAL1",    0
"NEBWCALWL",   0
"RESPARM",10006
"FREQPARM",10006




"[TRACE DATA]"
1100.0000, -70.359
1100.4000, -70.127
1100.8000, -70.147
1101.2000, -70.058
1101.6000, -69.972
1102.0000, -69.985
1102.4000, -69.960
1102.8000, -70.140
1103.2000, -70.176
1103.6000, -70.203
1104.0000, -70.331
1104.4000, -70.311
1104.8000, -70.307
1105.2000, -70.357
1105.6000, -70.250
1106.0000, -70.168
1106.4000, -70.057
1106.8000, -70.018
1107.2000, -69.931
1107.6000, -69.973
1108.0000, -69.855
1108.4000, -69.990
1108.8000, -69.920
1109.2000, -69.986
1109.6000, -69.907
1110.0000, -69.887
1110.4000, -69.967
1110.8000, -69.895
1111.2000, -70.073
1111.6000, -70.117
1112.0000, -70.174
1112.4000, -70.308
1112.8000, -70.305
1113.2000, -70.286
1113.6000, -70.166
1114.0000, -70.019
1114.4000, -69.831
1114.8000, -69.676
1115.2000, -69.692
1115.6000, -69.551
1116.0000, -69.623
1116.4000, -69.935
1116.8000, -70.122
1117.2000, -70.168
1117.6000, -70.235
1118.0000, -70.116
1118.4000, -70.098
1118.8000, -69.967
1119.2000, -69.919
1119.6000, -69.638
1120.0000, -69.450
1120.4000, -69.364
1120.8000, -69.409
1121.2000, -69.269
1121.6000, -69.280
1122.0000, -69.275
1122.4000, -69.222
1122.8000, -69.232
1123.2000, -69.383
1123.6000, -69.504
1124.0000, -69.580
1124.4000, -69.736
1124.8000, -69.666
1125.2000, -69.461
1125.6000, -69.189
1126.0000, -69.003
1126.4000, -68.869
1126.8000, -68.792
1127.2000, -68.853
1127.6000, -68.822
1128.0000, -68.955
1128.4000, -69.282
1128.8000, -69.471
1129.2000, -69.590
1129.6000, -69.484
1130.0000, -69.270
1130.4000, -69.110
1130.8000, -69.112
1131.2000, -68.896
1131.6000, -68.701
1132.0000, -68.371
1132.4000, -68.199
1132.8000, -68.131
1133.2000, -68.072
1133.6000, -67.979
1134.0000, -67.734
1134.4000, -67.659
1134.8000, -67.592
1135.2000, -67.585
1135.6000, -67.370
1136.0000, -67.142
1136.4000, -66.787
1136.8000, -66.383
1137.2000, -66.096
1137.6000, -66.005
1138.0000, -66.085
1138.4000, -66.193
1138.8000, -66.369
1139.2000, -66.675
1139.6000, -67.108
1140.0000, -67.516
1140.4000, -67.396
1140.8000, -66.936
1141.2000, -66.293
1141.6000, -65.767
1142.0000, -65.251
1142.4000, -64.753
1142.8000, -64.468
1143.2000, -64.310
1143.6000, -64.423
1144.0000, -64.681
1144.4000, -64.790
1144.8000, -64.719
1145.2000, -64.518
1145.6000, -64.275
1146.0000, -64.012
1146.4000, -63.729
1146.8000, -63.557
1147.2000, -63.519
1147.6000, -63.647
1148.0000, -63.908
1148.4000, -64.187
1148.8000, -64.262
1149.2000, -64.117
1149.6000, -63.823
1150.0000, -63.576
1150.4000, -63.249
1150.8000, -62.826
1151.2000, -62.463
1151.6000, -62.320
1152.0000, -62.332
1152.4000, -62.276
1152.8000, -62.084
1153.2000, -61.953
1153.6000, -61.893
1154.0000, -61.873
1154.4000, -61.712
1154.8000, -61.591
1155.2000, -61.694
1155.6000, -61.973
1156.0000, -62.279
1156.4000, -62.456
1156.8000, -62.537
1157.2000, -62.629
1157.6000, -62.579
1158.0000, -62.256
1158.4000, -61.657
1158.8000, -61.049
1159.2000, -60.680
1159.6000, -60.415
1160.0000, -60.124
1160.4000, -59.868
1160.8000, -59.872
1161.2000, -60.025
1161.6000, -60.073
1162.0000, -59.891
1162.4000, -59.703
1162.8000, -59.693
1163.2000, -59.739
1163.6000, -59.647
1164.0000, -59.669
1164.4000, -59.910
1164.8000, -60.241
1165.2000, -60.384
1165.6000, -60.262
1166.0000, -60.003
1166.4000, -59.694
1166.8000, -59.268
1167.2000, -58.878
1167.6000, -58.713
1168.0000, -58.800
1168.4000, -58.967
1168.8000, -58.986
1169.2000, -58.821
1169.6000, -58.692
1170.0000, -58.483
1170.4000, -58.154
1170.8000, -57.827
1171.2000, -57.715
1171.6000, -57.894
1172.0000, -58.165
1172.4000, -58.395
1172.8000, -58.601
1173.2000, -58.838
1173.6000, -58.977
1174.0000, -59.008
1174.4000, -59.097
1174.8000, -59.359
1175.2000, -59.678
1175.6000, -59.830
1176.0000, -59.814
1176.4000, -59.586
1176.8000, -59.144
1177.2000, -58.572
1177.6000, -58.099
1178.0000, -57.826
1178.4000, -57.771
1178.8000, -57.777
1179.2000, -57.878
1179.6000, -58.138
1180.0000, -58.434
1180.4000, -58.571
1180.8000, -58.572
1181.2000, -58.598
1181.6000, -58.656
1182.0000, -58.718
1182.4000, -58.777
1182.8000, -58.903
1183.2000, -59.035
1183.6000, -59.015
1184.0000, -58.901
1184.4000, -58.798
1184.8000, -58.763
1185.2000, -58.780
1185.6000, -58.868
1186.0000, -58.958
1186.4000, -59.003
1186.8000, -58.886
1187.2000, -58.604
1187.6000, -58.274
1188.0000, -58.027
1188.4000, -57.901
1188.8000, -57.950
1189.2000, -58.109
1189.6000, -58.296
1190.0000, -58.487
1190.4000, -58.600
1190.8000, -58.599
1191.2000, -58.555
1191.6000, -58.519
1192.0000, -58.569
1192.4000, -58.638
1192.8000, -58.629
1193.2000, -58.560
1193.6000, -58.386
1194.0000, -58.097
1194.4000, -57.830
1194.8000, -57.712
1195.2000, -57.740
1195.6000, -57.800
1196.0000, -57.886
1196.4000, -57.988
1196.8000, -58.026
1197.2000, -57.934
1197.6000, -57.795
1198.0000, -57.621
1198.4000, -57.434
1198.8000, -57.185
1199.2000, -56.908
1199.6000, -56.614
1200.0000, -56.263
1200.4000, -55.943
1200.8000, -55.717
1201.2000, -55.579
1201.6000, -55.505
1202.0000, -55.534
1202.4000, -55.639
1202.8000, -55.681
1203.2000, -55.655
1203.6000, -55.643
1204.0000, -55.555
1204.4000, -55.459
1204.8000, -55.468
1205.2000, -55.490
1205.6000, -55.407
1206.0000, -55.235
1206.4000, -55.023
1206.8000, -54.840
1207.2000, -54.689
1207.6000, -54.579
1208.0000, -54.499
1208.4000, -54.421
1208.8000, -54.301
1209.2000, -54.218
1209.6000, -54.198
1210.0000, -54.202
1210.4000, -54.238
1210.8000, -54.318
1211.2000, -54.495
1211.6000, -54.719
1212.0000, -54.885
1212.4000, -54.972
1212.8000, -54.999
1213.2000, -55.024
1213.6000, -55.065
1214.0000, -55.051
1214.4000, -54.937
1214.8000, -54.746
1215.2000, -54.487
1215.6000, -54.226
1216.0000, -54.020
1216.4000, -53.813
1216.8000, -53.637
1217.2000, -53.446
1217.6000, -53.236
1218.0000, -53.070
1218.4000, -53.074
1218.8000, -53.211
1219.2000, -53.389
1219.6000, -53.623
1220.0000, -53.903
1220.4000, -54.101
1220.8000, -54.131
1221.2000, -54.087
1221.6000, -54.045
1222.0000, -54.102
1222.4000, -54.194
1222.8000, -54.213
1223.2000, -54.169
1223.6000, -54.155
1224.0000, -54.154
1224.4000, -54.069
1224.8000, -53.888
1225.2000, -53.679
1225.6000, -53.544
1226.0000, -53.520
1226.4000, -53.569
1226.8000, -53.601
1227.2000, -53.616
1227.6000, -53.737
1228.0000, -53.914
1228.4000, -54.055
1228.8000, -54.058
1229.2000, -53.966
1229.6000, -53.951
1230.0000, -54.031
1230.4000, -54.202
1230.8000, -54.373
1231.2000, -54.518
1231.6000, -54.653
1232.0000, -54.767
1232.4000, -54.884
1232.8000, -54.939
1233.2000, -54.836
1233.6000, -54.611
1234.0000, -54.365
1234.4000, -54.219
1234.8000, -54.119
1235.2000, -53.940
1235.6000, -53.726
1236.0000, -53.507
1236.4000, -53.281
1236.8000, -52.972
1237.2000, -52.625
1237.6000, -52.417
1238.0000, -52.417
1238.4000, -52.507
1238.8000, -52.543
1239.2000, -52.627
1239.6000, -52.702
1240.0000, -52.778
1240.4000, -52.845
1240.8000, -52.889
1241.2000, -53.015
1241.6000, -53.186
1242.0000, -53.283
1242.4000, -53.320
1242.8000, -53.308
1243.2000, -53.227
1243.6000, -53.142
1244.0000, -53.050
1244.4000, -52.879
1244.8000, -52.720
1245.2000, -52.545
1245.6000, -52.383
1246.0000, -52.238
1246.4000, -52.105
1246.8000, -51.970
1247.2000, -51.871
1247.6000, -51.913
1248.0000, -52.059
1248.4000, -52.180
1248.8000, -52.268
1249.2000, -52.368
1249.6000, -52.533
1250.0000, -52.701
1250.4000, -52.785
1250.8000, -52.787
1251.2000, -52.767
1251.6000, -52.690
1252.0000, -52.520
1252.4000, -52.236
1252.8000, -51.915
1253.2000, -51.553
1253.6000, -51.149
1254.0000, -50.831
1254.4000, -50.723
1254.8000, -50.764
1255.2000, -50.784
1255.6000, -50.692
1256.0000, -50.629
1256.4000, -50.700
1256.8000, -50.756
1257.2000, -50.755
1257.6000, -50.787
1258.0000, -50.915
1258.4000, -51.123
1258.8000, -51.274
1259.2000, -51.298
1259.6000, -51.267
1260.0000, -51.177
1260.4000, -51.018
1260.8000, -50.812
1261.2000, -50.589
1261.6000, -50.449
1262.0000, -50.397
1262.4000, -50.285
1262.8000, -50.061
1263.2000, -49.783
1263.6000, -49.604
1264.0000, -49.543
1264.4000, -49.485
1264.8000, -49.344
1265.2000, -49.168
1265.6000, -49.032
1266.0000, -48.980
1266.4000, -48.932
1266.8000, -48.789
1267.2000, -48.626
1267.6000, -48.485
1268.0000, -48.414
1268.4000, -48.395
1268.8000, -48.377
1269.2000, -48.368
1269.6000, -48.329
1270.0000, -48.279
1270.4000, -48.236
1270.8000, -48.178
1271.2000, -48.119
1271.6000, -48.065
1272.0000, -48.014
1272.4000, -47.986
1272.8000, -47.975
1273.2000, -47.971
1273.6000, -47.995
1274.0000, -48.010
1274.4000, -47.974
1274.8000, -47.840
1275.2000, -47.708
1275.6000, -47.687
1276.0000, -47.739
1276.4000, -47.752
1276.8000, -47.708
1277.2000, -47.739
1277.6000, -47.982
1278.0000, -48.293
1278.4000, -48.424
1278.8000, -48.365
1279.2000, -48.379
1279.6000, -48.626
1280.0000, -48.928
1280.4000, -49.050
1280.8000, -49.059
1281.2000, -49.220
1281.6000, -49.599
1282.0000, -49.985
1282.4000, -50.099
1282.8000, -49.949
1283.2000, -49.779
1283.6000, -49.665
1284.0000, -49.567
1284.4000, -49.424
1284.8000, -49.244
1285.2000, -49.075
1285.6000, -48.935
1286.0000, -48.801
1286.4000, -48.634
1286.8000, -48.450
1287.2000, -48.245
1287.6000, -48.006
1288.0000, -47.819
1288.4000, -47.763
1288.8000, -47.772
1289.2000, -47.747
1289.6000, -47.694
1290.0000, -47.701
1290.4000, -47.786
1290.8000, -47.871
1291.2000, -47.850
1291.6000, -47.804
1292.0000, -47.866
1292.4000, -48.009
1292.8000, -48.133
1293.2000, -48.189
1293.6000, -48.247
1294.0000, -48.319
1294.4000, -48.359
1294.8000, -48.351
1295.2000, -48.275
1295.6000, -48.187
1296.0000, -48.111
1296.4000, -48.019
1296.8000, -47.923
1297.2000, -47.860
1297.6000, -47.850
1298.0000, -47.885
1298.4000, -47.916
1298.8000, -47.949
1299.2000, -47.994
1299.6000, -48.038
1300.0000, -48.082
1300.4000, -48.145
1300.8000, -48.281
1301.2000, -48.524
1301.6000, -48.850
1302.0000, -49.202
1302.4000, -49.502
1302.8000, -49.760
1303.2000, -49.998
1303.6000, -50.156
1304.0000, -50.215
1304.4000, -50.242
1304.8000, -50.364
1305.2000, -50.543
1305.6000, -50.673
1306.0000, -50.707
1306.4000, -50.680
1306.8000, -50.571
1307.2000, -50.375
1307.6000, -50.121
1308.0000, -49.880
1308.4000, -49.666
1308.8000, -49.527
1309.2000, -49.410
1309.6000, -49.230
1310.0000, -48.938
1310.4000, -48.528
1310.8000, -48.015
1311.2000, -47.455
1311.6000, -46.975
1312.0000, -46.553
1312.4000, -46.139
1312.8000, -45.832
1313.2000, -45.629
1313.6000, -45.376
1314.0000, -45.040
1314.4000, -44.728
1314.8000, -44.463
1315.2000, -44.190
1315.6000, -43.877
1316.0000, -43.576
1316.4000, -43.342
1316.8000, -43.216
1317.2000, -43.131
1317.6000, -43.025
1318.0000, -42.906
1318.4000, -42.818
1318.8000, -42.745
1319.2000, -42.633
1319.6000, -42.430
1320.0000, -42.198
1320.4000, -41.989
1320.8000, -41.802
1321.2000, -41.595
1321.6000, -41.320
1322.0000, -41.062
1322.4000, -40.833
1322.8000, -40.651
1323.2000, -40.462
1323.6000, -40.260
1324.0000, -40.078
1324.4000, -39.944
1324.8000, -39.849
1325.2000, -39.735
1325.6000, -39.595
1326.0000, -39.499
1326.4000, -39.496
1326.8000, -39.561
1327.2000, -39.624
1327.6000, -39.641
1328.0000, -39.635
1328.4000, -39.614
1328.8000, -39.482
1329.2000, -39.237
1329.6000, -38.994
1330.0000, -38.832
1330.4000, -38.739
1330.8000, -38.684
1331.2000, -38.673
1331.6000, -38.714
1332.0000, -38.755
1332.4000, -38.761
1332.8000, -38.750
1333.2000, -38.726
1333.6000, -38.688
1334.0000, -38.661
1334.4000, -38.661
1334.8000, -38.688
1335.2000, -38.749
1335.6000, -38.803
1336.0000, -38.844
1336.4000, -38.849
1336.8000, -38.819
1337.2000, -38.761
1337.6000, -38.676
1338.0000, -38.595
1338.4000, -38.521
1338.8000, -38.462
1339.2000, -38.404
1339.6000, -38.308
1340.0000, -38.227
1340.4000, -38.193
1340.8000, -38.179
1341.2000, -38.152
1341.6000, -38.158
1342.0000, -38.227
1342.4000, -38.304
1342.8000, -38.370
1343.2000, -38.436
1343.6000, -38.506
1344.0000, -38.567
1344.4000, -38.614
1344.8000, -38.638
1345.2000, -38.624
1345.6000, -38.597
1346.0000, -38.581
1346.4000, -38.550
1346.8000, -38.495
1347.2000, -38.412
1347.6000, -38.314
1348.0000, -38.201
1348.4000, -38.057
1348.8000, -37.868
1349.2000, -37.705
1349.6000, -37.625
1350.0000, -37.568
1350.4000, -37.512
1350.8000, -37.507
1351.2000, -37.511
1351.6000, -37.491
1352.0000, -37.390
1352.4000, -37.246
1352.8000, -37.047
1353.2000, -36.830
1353.6000, -36.667
1354.0000, -36.598
1354.4000, -36.486
1354.8000, -36.519
1355.2000, -36.591
1355.6000, -36.557
1356.0000, -36.437
1356.4000, -36.333
1356.8000, -36.195
1357.2000, -35.936
1357.6000, -35.813
1358.0000, -35.686
1358.4000, -35.626
1358.8000, -35.812
1359.2000, -35.959
1359.6000, -36.060
1360.0000, -36.249
1360.4000, -36.225
1360.8000, -35.990
1361.2000, -35.708
1361.6000, -35.546
1362.0000, -35.155
1362.4000, -34.847
1362.8000, -34.683
1363.2000, -34.632
1363.6000, -34.609
1364.0000, -34.794
1364.4000, -34.913
1364.8000, -34.912
1365.2000, -34.693
1365.6000, -34.370
1366.0000, -33.996
1366.4000, -33.762
1366.8000, -33.653
1367.2000, -33.666
1367.6000, -33.806
1368.0000, -33.951
1368.4000, -34.071
1368.8000, -34.086
1369.2000, -34.114
1369.6000, -34.002
1370.0000, -33.892
1370.4000, -33.791
1370.8000, -33.630
1371.2000, -33.465
1371.6000, -33.399
1372.0000, -33.284
1372.4000, -33.166
1372.8000, -33.131
1373.2000, -33.048
1373.6000, -32.957
1374.0000, -32.922
1374.4000, -32.857
1374.8000, -32.791
1375.2000, -32.795
1375.6000, -32.776
1376.0000, -32.785
1376.4000, -32.804
1376.8000, -32.811
1377.2000, -32.778
1377.6000, -32.815
1378.0000, -32.868
1378.4000, -32.843
1378.8000, -32.889
1379.2000, -32.931
1379.6000, -33.006
1380.0000, -33.068
1380.4000, -33.031
1380.8000, -32.899
1381.2000, -32.712
1381.6000, -32.603
1382.0000, -32.513
1382.4000, -32.449
1382.8000, -32.548
1383.2000, -32.706
1383.6000, -32.742
1384.0000, -32.633
1384.4000, -32.746
1384.8000, -32.690
1385.2000, -32.476
1385.6000, -32.234
1386.0000, -31.855
1386.4000, -31.444
1386.8000, -31.240
1387.2000, -31.237
1387.6000, -31.286
1388.0000, -31.384
1388.4000, -31.541
1388.8000, -31.656
1389.2000, -31.616
1389.6000, -31.488
1390.0000, -31.372
1390.4000, -31.182
1390.8000, -31.006
1391.2000, -30.888
1391.6000, -31.012
1392.0000, -31.149
1392.4000, -31.333
1392.8000, -31.573
1393.2000, -31.771
1393.6000, -31.735
1394.0000, -31.733
1394.4000, -31.685
1394.8000, -31.560
1395.2000, -31.324
1395.6000, -31.281
1396.0000, -31.109
1396.4000, -31.008
1396.8000, -30.990
1397.2000, -31.097
1397.6000, -31.045
1398.0000, -31.047
1398.4000, -30.991
1398.8000, -30.928
1399.2000, -30.757
1399.6000, -30.600
1400.0000, -30.565
1400.4000, -30.443
1400.8000, -30.311
1401.2000, -30.183
1401.6000, -30.033
1402.0000, -29.853
1402.4000, -29.813
1402.8000, -29.756
1403.2000, -29.770
1403.6000, -29.804
1404.0000, -29.910
1404.4000, -30.071
1404.8000, -30.116
1405.2000, -30.147
1405.6000, -30.151
1406.0000, -30.083
1406.4000, -30.032
1406.8000, -30.022
1407.2000, -29.880
1407.6000, -29.698
1408.0000, -29.471
1408.4000, -29.304
1408.8000, -29.235
1409.2000, -29.164
1409.6000, -29.111
1410.0000, -29.091
1410.4000, -29.044
1410.8000, -28.979
1411.2000, -28.989
1411.6000, -29.043
1412.0000, -29.044
1412.4000, -29.015
1412.8000, -28.981
1413.2000, -28.948
1413.6000, -28.871
1414.0000, -28.788
1414.4000, -28.665
1414.8000, -28.499
1415.2000, -28.285
1415.6000, -28.053
1416.0000, -27.823
1416.4000, -27.570
1416.8000, -27.318
1417.2000, -27.038
1417.6000, -26.761
1418.0000, -26.566
1418.4000, -26.452
1418.8000, -26.387
1419.2000, -26.385
1419.6000, -26.374
1420.0000, -26.293
1420.4000, -26.154
1420.8000, -26.015
1421.2000, -25.900
1421.6000, -25.859
1422.0000, -25.891
1422.4000, -25.969
1422.8000, -26.044
1423.2000, -26.117
1423.6000, -26.124
1424.0000, -26.110
1424.4000, -26.074
1424.8000, -26.010
1425.2000, -25.885
1425.6000, -25.756
1426.0000, -25.620
1426.4000, -25.519
1426.8000, -25.471
1427.2000, -25.478
1427.6000, -25.489
1428.0000, -25.447
1428.4000, -25.333
1428.8000, -25.171
1429.2000, -24.988
1429.6000, -24.783
1430.0000, -24.572
1430.4000, -24.379
1430.8000, -24.208
1431.2000, -24.058
1431.6000, -23.982
1432.0000, -23.934
1432.4000, -23.908
1432.8000, -23.913
1433.2000, -23.948
1433.6000, -23.982
1434.0000, -24.023
1434.4000, -24.025
1434.8000, -23.964
1435.2000, -23.854
1435.6000, -23.679
1436.0000, -23.510
1436.4000, -23.362
1436.8000, -23.272
1437.2000, -23.230
1437.6000, -23.225
1438.0000, -23.257
1438.4000, -23.304
1438.8000, -23.362
1439.2000, -23.408
1439.6000, -23.455
1440.0000, -23.484
1440.4000, -23.502
1440.8000, -23.530
1441.2000, -23.533
1441.6000, -23.515
1442.0000, -23.482
1442.4000, -23.409
1442.8000, -23.303
1443.2000, -23.197
1443.6000, -23.087
1444.0000, -22.952
1444.4000, -22.841
1444.8000, -22.803
1445.2000, -22.810
1445.6000, -22.841
1446.0000, -22.923
1446.4000, -23.027
1446.8000, -23.040
1447.2000, -23.001
1447.6000, -22.869
1448.0000, -22.646
1448.4000, -22.356
1448.8000, -22.090
1449.2000, -21.885
1449.6000, -21.788
1450.0000, -21.837
1450.4000, -22.021
1450.8000, -22.312
1451.2000, -22.656
1451.6000, -22.900
1452.0000, -22.943
1452.4000, -22.747
1452.8000, -22.357
1453.2000, -21.912
1453.6000, -21.536
1454.0000, -21.287
1454.4000, -21.205
1454.8000, -21.288
1455.2000, -21.502
1455.6000, -21.840
1456.0000, -22.254
1456.4000, -22.657
1456.8000, -22.945
1457.2000, -22.986
1457.6000, -22.732
1458.0000, -22.293
1458.4000, -21.820
1458.8000, -21.467
1459.2000, -21.312
1459.6000, -21.390
1460.0000, -21.683
1460.4000, -22.125
1460.8000, -22.653
1461.2000, -23.118
1461.6000, -23.405
1462.0000, -23.430
1462.4000, -23.203
1462.8000, -22.801
1463.2000, -22.344
1463.6000, -21.924
1464.0000, -21.636
1464.4000, -21.502
1464.8000, -21.547
1465.2000, -21.740
1465.6000, -22.034
1466.0000, -22.351
1466.4000, -22.625
1466.8000, -22.808
1467.2000, -22.869
1467.6000, -22.818
1468.0000, -22.695
1468.4000, -22.546
1468.8000, -22.405
1469.2000, -22.297
1469.6000, -22.227
1470.0000, -22.223
1470.4000, -22.230
1470.8000, -22.214
1471.2000, -22.192
1471.6000, -22.147
1472.0000, -22.062
1472.4000, -21.977
1472.8000, -21.910
1473.2000, -21.849
1473.6000, -21.789
1474.0000, -21.741
1474.4000, -21.665
1474.8000, -21.555
1475.2000, -21.413
1475.6000, -21.228
1476.0000, -21.033
1476.4000, -20.879
1476.8000, -20.756
1477.2000, -20.713
1477.6000, -20.716
1478.0000, -20.739
1478.4000, -20.760
1478.8000, -20.761
1479.2000, -20.734
1479.6000, -20.701
1480.0000, -20.647
1480.4000, -20.551
1480.8000, -20.427
1481.2000, -20.298
1481.6000, -20.168
1482.0000, -20.081
1482.4000, -20.059
1482.8000, -20.103
1483.2000, -20.182
1483.6000, -20.265
1484.0000, -20.259
1484.4000, -20.119
1484.8000, -19.836
1485.2000, -19.403
1485.6000, -18.887
1486.0000, -18.331
1486.4000, -17.793
1486.8000, -17.341
1487.2000, -17.028
1487.6000, -16.891
1488.0000, -16.916
1488.4000, -17.065
1488.8000, -17.291
1489.2000, -17.520
